SpectraSuite Data File
++++++++++++++++++++++++++++++++++++
Date: Sat Apr 28 14:01:04 GMT-03:00 2018
User: Diogo
Dark Spectrum Present: Yes
Reference Spectrum Present: Yes
Number of Sampled Component Spectra: 1
Spectrometers: USB4J00421
Integration Time (usec): 1245403 (USB4J00421)
Spectra Averaged: 5 (USB4J00421)
Boxcar Smoothing: 5 (USB4J00421)
Correct for Electrical Dark: No (USB4J00421)
Strobe/Lamp Enabled: No (USB4J00421)
Correct for Detector Non-linearity: No (USB4J00421)
Correct for Stray Light: No (USB4J00421)
Number of Pixels in Processed Spectrum: 3648
>>>>>Begin Processed Spectral Data<<<<<
177,28	111,282
177,50	111,282
177,72	111,282
177,94	88,136
178,16	110,731
178,37	101,099
178,59	100,482
178,81	98,392
179,03	97,044
179,25	98,236
179,47	93,048
179,69	91,232
179,90	82,508
180,12	77,901
180,34	73,628
180,56	74,292
180,78	71,986
181,00	68,566
181,22	67,510
181,43	65,439
181,65	63,604
181,87	63,500
182,09	63,266
182,31	62,637
182,53	61,572
182,74	61,583
182,96	57,968
183,18	57,039
183,40	58,252
183,62	56,269
183,84	57,551
184,05	58,398
184,27	57,126
184,49	55,952
184,71	55,416
184,93	55,758
185,15	53,755
185,36	54,682
185,58	55,199
185,80	54,849
186,02	54,736
186,24	54,808
186,45	53,770
186,67	53,622
186,89	54,187
187,11	55,009
187,33	55,762
187,55	55,913
187,76	57,272
187,98	58,550
188,20	59,206
188,42	59,935
188,64	59,408
188,85	58,187
189,07	58,498
189,29	59,758
189,51	59,862
189,73	60,230
189,94	60,779
190,16	59,709
190,38	57,672
190,60	58,196
190,82	57,225
191,03	57,595
191,25	57,664
191,47	56,770
191,69	55,029
191,91	53,836
192,12	53,310
192,34	52,511
192,56	51,458
192,78	51,337
193,00	49,615
193,21	49,700
193,43	46,705
193,65	48,507
193,87	49,209
194,09	51,223
194,30	51,245
194,52	51,404
194,74	51,723
194,96	54,067
195,17	52,398
195,39	52,954
195,61	52,986
195,83	54,746
196,05	54,472
196,26	53,647
196,48	53,762
196,70	55,296
196,92	55,178
197,13	54,515
197,35	52,756
197,57	53,885
197,79	52,761
198,01	52,611
198,22	51,642
198,44	51,891
198,66	53,066
198,88	50,756
199,09	49,539
199,31	49,361
199,53	49,220
199,75	49,763
199,96	50,663
200,18	50,278
200,40	50,360
200,62	50,441
200,83	49,649
201,05	48,874
201,27	48,852
201,49	47,908
201,70	49,330
201,92	48,422
202,14	48,204
202,36	48,507
202,57	51,008
202,79	49,923
203,01	50,446
203,23	50,702
203,44	52,507
203,66	54,892
203,88	55,619
204,10	55,574
204,31	56,945
204,53	57,075
204,75	56,242
204,97	56,303
205,18	57,809
205,40	57,222
205,62	58,223
205,84	56,635
206,05	54,888
206,27	55,989
206,49	56,608
206,71	56,000
206,92	56,167
207,14	56,588
207,36	54,478
207,57	52,980
207,79	53,669
208,01	51,572
208,23	51,639
208,44	52,743
208,66	50,485
208,88	48,712
209,10	48,449
209,31	47,380
209,53	47,568
209,75	47,737
209,96	47,897
210,18	47,306
210,40	47,424
210,62	47,048
210,83	45,599
211,05	46,443
211,27	46,103
211,48	45,082
211,70	44,087
211,92	42,164
212,14	41,286
212,35	39,571
212,57	39,288
212,79	39,490
213,00	38,774
213,22	38,679
213,44	38,119
213,65	36,438
213,87	36,298
214,09	35,956
214,31	34,761
214,52	34,133
214,74	34,073
214,96	31,838
215,17	30,577
215,39	29,188
215,61	28,422
215,82	27,578
216,04	27,220
216,26	26,472
216,47	26,396
216,69	26,065
216,91	25,742
217,13	25,014
217,34	25,263
217,56	24,998
217,78	25,083
217,99	24,881
218,21	24,718
218,43	24,520
218,64	24,483
218,86	24,348
219,08	24,194
219,29	24,066
219,51	24,314
219,73	24,312
219,94	24,272
220,16	24,247
220,38	24,050
220,59	23,916
220,81	23,835
221,03	23,886
221,24	23,665
221,46	23,718
221,68	23,657
221,89	23,610
222,11	23,501
222,33	23,328
222,54	23,090
222,76	23,040
222,98	22,898
223,19	22,818
223,41	22,753
223,63	22,626
223,84	22,448
224,06	22,354
224,28	22,053
224,49	22,007
224,71	22,060
224,93	22,113
225,14	22,059
225,36	22,122
225,57	22,101
225,79	21,920
226,01	21,932
226,22	22,003
226,44	21,897
226,66	22,063
226,87	21,975
227,09	21,804
227,31	21,758
227,52	21,700
227,74	21,663
227,96	21,702
228,17	21,646
228,39	21,662
228,60	21,632
228,82	21,594
229,04	21,507
229,25	21,524
229,47	21,525
229,69	21,471
229,90	21,429
230,12	21,450
230,33	21,332
230,55	21,373
230,77	21,358
230,98	21,427
231,20	21,535
231,42	21,632
231,63	21,621
231,85	21,635
232,06	21,721
232,28	21,872
232,50	21,876
232,71	21,963
232,93	22,045
233,15	22,107
233,36	22,066
233,58	22,151
233,79	22,082
234,01	22,182
234,23	22,296
234,44	22,336
234,66	22,360
234,87	22,453
235,09	22,542
235,31	22,590
235,52	22,658
235,74	22,746
235,95	22,799
236,17	22,930
236,39	22,963
236,60	23,009
236,82	23,060
237,03	23,098
237,25	23,264
237,47	23,361
237,68	23,444
237,90	23,575
238,11	23,767
238,33	23,857
238,55	23,995
238,76	24,117
238,98	24,302
239,19	24,480
239,41	24,703
239,62	24,789
239,84	24,927
240,06	25,122
240,27	25,223
240,49	25,279
240,70	25,441
240,92	25,596
241,13	25,801
241,35	25,908
241,57	26,039
241,78	26,116
242,00	26,245
242,21	26,418
242,43	26,541
242,64	26,640
242,86	26,754
243,08	26,888
243,29	27,010
243,51	27,091
243,72	27,222
243,94	27,348
244,15	27,449
244,37	27,504
244,59	27,525
244,80	27,607
245,02	27,721
245,23	27,875
245,45	27,991
245,66	28,083
245,88	28,132
246,09	28,224
246,31	28,312
246,53	28,410
246,74	28,472
246,96	28,599
247,17	28,645
247,39	28,718
247,60	28,774
247,82	28,778
248,03	28,799
248,25	28,820
248,46	28,846
248,68	28,884
248,90	28,925
249,11	28,999
249,33	29,017
249,54	29,025
249,76	29,059
249,97	29,078
250,19	29,102
250,40	29,133
250,62	29,221
250,83	29,250
251,05	29,258
251,26	29,267
251,48	29,295
251,69	29,306
251,91	29,390
252,13	29,401
252,34	29,398
252,56	29,481
252,77	29,475
252,99	29,489
253,20	29,495
253,42	29,522
253,63	29,550
253,85	29,554
254,06	29,552
254,28	29,533
254,49	29,533
254,71	29,543
254,92	29,483
255,14	29,475
255,35	29,481
255,57	29,478
255,78	29,439
256,00	29,397
256,21	29,361
256,43	29,367
256,64	29,332
256,86	29,316
257,07	29,252
257,29	29,230
257,50	29,229
257,72	29,151
257,93	29,143
258,15	29,106
258,36	29,127
258,58	29,102
258,79	29,061
259,01	29,045
259,22	28,984
259,44	28,959
259,65	28,944
259,87	28,906
260,08	28,921
260,30	28,884
260,51	28,875
260,73	28,805
260,94	28,725
261,16	28,715
261,37	28,672
261,59	28,684
261,80	28,686
262,02	28,653
262,23	28,613
262,45	28,586
262,66	28,533
262,87	28,479
263,09	28,449
263,30	28,465
263,52	28,474
263,73	28,445
263,95	28,428
264,16	28,378
264,38	28,322
264,59	28,313
264,81	28,226
265,02	28,204
265,24	28,198
265,45	28,181
265,67	28,167
265,88	28,053
266,09	28,019
266,31	27,947
266,52	27,926
266,74	27,893
266,95	27,843
267,17	27,838
267,38	27,816
267,60	27,766
267,81	27,739
268,03	27,711
268,24	27,700
268,45	27,669
268,67	27,656
268,88	27,624
269,10	27,612
269,31	27,582
269,53	27,536
269,74	27,493
269,96	27,512
270,17	27,480
270,38	27,435
270,60	27,426
270,81	27,414
271,03	27,397
271,24	27,374
271,46	27,347
271,67	27,325
271,88	27,335
272,10	27,343
272,31	27,264
272,53	27,255
272,74	27,192
272,96	27,175
273,17	27,108
273,38	27,054
273,60	27,022
273,81	26,977
274,03	26,996
274,24	26,957
274,46	26,906
274,67	26,901
274,88	26,827
275,10	26,872
275,31	26,835
275,53	26,861
275,74	26,839
275,95	26,824
276,17	26,824
276,38	26,765
276,60	26,787
276,81	26,771
277,02	26,777
277,24	26,802
277,45	26,806
277,67	26,792
277,88	26,764
278,09	26,788
278,31	26,803
278,52	26,832
278,74	26,833
278,95	26,839
279,16	26,888
279,38	26,904
279,59	26,912
279,81	26,911
280,02	26,961
280,23	26,994
280,45	27,031
280,66	27,057
280,88	27,056
281,09	27,133
281,30	27,107
281,52	27,123
281,73	27,161
281,94	27,206
282,16	27,219
282,37	27,244
282,59	27,280
282,80	27,294
283,01	27,335
283,23	27,361
283,44	27,349
283,65	27,416
283,87	27,457
284,08	27,495
284,30	27,562
284,51	27,636
284,72	27,670
284,94	27,720
285,15	27,790
285,36	27,885
285,58	27,957
285,79	28,071
286,01	28,175
286,22	28,244
286,43	28,341
286,65	28,463
286,86	28,552
287,07	28,717
287,29	28,880
287,50	29,022
287,71	29,174
287,93	29,372
288,14	29,515
288,35	29,671
288,57	29,834
288,78	29,971
288,99	30,099
289,21	30,287
289,42	30,391
289,63	30,533
289,85	30,646
290,06	30,759
290,28	30,878
290,49	30,989
290,70	31,076
290,92	31,203
291,13	31,344
291,34	31,476
291,56	31,578
291,77	31,701
291,98	31,763
292,20	31,898
292,41	31,989
292,62	32,061
292,84	32,184
293,05	32,313
293,26	32,413
293,47	32,473
293,69	32,554
293,90	32,623
294,11	32,676
294,33	32,800
294,54	32,883
294,75	32,951
294,97	33,067
295,18	33,139
295,39	33,188
295,61	33,261
295,82	33,345
296,03	33,393
296,25	33,460
296,46	33,565
296,67	33,627
296,89	33,692
297,10	33,799
297,31	33,889
297,52	33,962
297,74	34,092
297,95	34,219
298,16	34,315
298,38	34,470
298,59	34,620
298,80	34,689
299,02	34,800
299,23	34,890
299,44	35,021
299,65	35,071
299,87	35,151
300,08	35,183
300,29	35,219
300,51	35,309
300,72	35,343
300,93	35,392
301,14	35,455
301,36	35,478
301,57	35,533
301,78	35,521
302,00	35,583
302,21	35,631
302,42	35,686
302,63	35,717
302,85	35,772
303,06	35,813
303,27	35,810
303,49	35,855
303,70	35,902
303,91	35,935
304,12	35,962
304,34	36,000
304,55	36,057
304,76	36,129
304,97	36,195
305,19	36,226
305,40	36,284
305,61	36,340
305,82	36,406
306,04	36,451
306,25	36,534
306,46	36,613
306,68	36,659
306,89	36,703
307,10	36,702
307,31	36,723
307,53	36,749
307,74	36,784
307,95	36,835
308,16	36,867
308,38	36,926
308,59	36,952
308,80	36,996
309,01	37,030
309,23	37,060
309,44	37,147
309,65	37,201
309,86	37,252
310,07	37,261
310,29	37,297
310,50	37,383
310,71	37,461
310,92	37,499
311,14	37,529
311,35	37,587
311,56	37,644
311,77	37,679
311,99	37,757
312,20	37,797
312,41	37,821
312,62	37,859
312,84	37,866
313,05	37,878
313,26	37,861
313,47	37,927
313,68	37,948
313,90	38,008
314,11	38,041
314,32	38,055
314,53	38,122
314,75	38,186
314,96	38,265
315,17	38,297
315,38	38,365
315,59	38,481
315,81	38,495
316,02	38,550
316,23	38,540
316,44	38,585
316,65	38,615
316,87	38,650
317,08	38,697
317,29	38,710
317,50	38,791
317,71	38,827
317,93	38,902
318,14	38,932
318,35	38,977
318,56	39,043
318,77	39,105
318,99	39,185
319,20	39,215
319,41	39,273
319,62	39,350
319,83	39,385
320,05	39,403
320,26	39,383
320,47	39,461
320,68	39,523
320,89	39,590
321,11	39,649
321,32	39,717
321,53	39,745
321,74	39,830
321,95	39,859
322,16	39,880
322,38	39,933
322,59	39,998
322,80	40,004
323,01	40,024
323,22	40,041
323,43	40,024
323,65	40,000
323,86	40,057
324,07	40,029
324,28	40,024
324,49	40,026
324,70	40,035
324,92	40,032
325,13	40,078
325,34	40,102
325,55	40,096
325,76	40,126
325,97	40,126
326,19	40,122
326,40	40,138
326,61	40,218
326,82	40,271
327,03	40,312
327,24	40,341
327,46	40,360
327,67	40,383
327,88	40,428
328,09	40,428
328,30	40,480
328,51	40,490
328,72	40,489
328,94	40,439
329,15	40,419
329,36	40,368
329,57	40,350
329,78	40,325
329,99	40,307
330,20	40,294
330,42	40,349
330,63	40,342
330,84	40,359
331,05	40,375
331,26	40,435
331,47	40,450
331,68	40,470
331,89	40,462
332,11	40,495
332,32	40,498
332,53	40,483
332,74	40,438
332,95	40,416
333,16	40,397
333,37	40,420
333,58	40,310
333,80	40,287
334,01	40,294
334,22	40,282
334,43	40,219
334,64	40,169
334,85	40,141
335,06	40,106
335,27	40,075
335,48	40,048
335,70	39,962
335,91	39,963
336,12	39,919
336,33	39,859
336,54	39,857
336,75	39,860
336,96	39,831
337,17	39,803
337,38	39,786
337,59	39,751
337,81	39,714
338,02	39,714
338,23	39,691
338,44	39,667
338,65	39,669
338,86	39,654
339,07	39,602
339,28	39,643
339,49	39,667
339,70	39,651
339,91	39,637
340,13	39,607
340,34	39,560
340,55	39,543
340,76	39,533
340,97	39,522
341,18	39,466
341,39	39,462
341,60	39,406
341,81	39,332
342,02	39,309
342,23	39,280
342,44	39,223
342,65	39,211
342,87	39,192
343,08	39,165
343,29	39,102
343,50	39,055
343,71	39,017
343,92	38,967
344,13	38,957
344,34	38,906
344,55	38,887
344,76	38,873
344,97	38,843
345,18	38,778
345,39	38,695
345,60	38,701
345,81	38,687
346,02	38,626
346,23	38,586
346,45	38,490
346,66	38,428
346,87	38,319
347,08	38,265
347,29	38,185
347,50	38,147
347,71	38,116
347,92	38,016
348,13	37,923
348,34	37,868
348,55	37,791
348,76	37,738
348,97	37,647
349,18	37,593
349,39	37,540
349,60	37,481
349,81	37,426
350,02	37,327
350,23	37,302
350,44	37,311
350,65	37,233
350,86	37,172
351,07	37,117
351,28	37,072
351,49	37,032
351,70	36,918
351,91	36,830
352,12	36,749
352,33	36,739
352,55	36,617
352,76	36,489
352,97	36,423
353,18	36,311
353,39	36,215
353,60	36,153
353,81	36,057
354,02	36,000
354,23	35,919
354,44	35,799
354,65	35,665
354,86	35,584
355,07	35,462
355,28	35,384
355,49	35,287
355,70	35,195
355,91	35,106
356,12	35,006
356,33	34,901
356,54	34,813
356,75	34,712
356,96	34,605
357,17	34,485
357,38	34,379
357,59	34,275
357,80	34,192
358,01	34,116
358,22	33,991
358,43	33,941
358,64	33,862
358,85	33,739
359,05	33,655
359,26	33,600
359,47	33,513
359,68	33,426
359,89	33,296
360,10	33,166
360,31	33,045
360,52	32,904
360,73	32,773
360,94	32,626
361,15	32,513
361,36	32,393
361,57	32,239
361,78	32,106
361,99	31,981
362,20	31,883
362,41	31,780
362,62	31,640
362,83	31,543
363,04	31,420
363,25	31,320
363,46	31,198
363,67	31,048
363,88	30,968
364,09	30,852
364,30	30,745
364,51	30,601
364,72	30,498
364,93	30,393
365,13	30,259
365,34	30,130
365,55	30,002
365,76	29,954
365,97	29,850
366,18	29,671
366,39	29,560
366,60	29,457
366,81	29,369
367,02	29,225
367,23	29,139
367,44	29,008
367,65	28,873
367,86	28,756
368,07	28,592
368,28	28,459
368,49	28,357
368,69	28,249
368,90	28,132
369,11	28,036
369,32	27,946
369,53	27,830
369,74	27,793
369,95	27,685
370,16	27,609
370,37	27,509
370,58	27,483
370,79	27,405
371,00	27,295
371,21	27,203
371,41	27,034
371,62	26,920
371,83	26,792
372,04	26,695
372,25	26,576
372,46	26,434
372,67	26,285
372,88	26,156
373,09	26,054
373,30	25,970
373,51	25,871
373,71	25,832
373,92	25,762
374,13	25,710
374,34	25,567
374,55	25,513
374,76	25,475
374,97	25,409
375,18	25,310
375,39	25,240
375,59	25,156
375,80	25,023
376,01	24,925
376,22	24,858
376,43	24,767
376,64	24,727
376,85	24,648
377,06	24,511
377,27	24,446
377,47	24,414
377,68	24,349
377,89	24,279
378,10	24,243
378,31	24,209
378,52	24,161
378,73	24,106
378,94	24,006
379,14	23,939
379,35	23,909
379,56	23,825
379,77	23,707
379,98	23,645
380,19	23,537
380,40	23,530
380,61	23,463
380,81	23,402
381,02	23,369
381,23	23,326
381,44	23,355
381,65	23,358
381,86	23,353
382,07	23,297
382,27	23,244
382,48	23,259
382,69	23,207
382,90	23,180
383,11	23,152
383,32	23,111
383,52	23,115
383,73	23,007
383,94	22,946
384,15	22,973
384,36	22,992
384,57	22,970
384,78	22,918
384,98	22,839
385,19	22,781
385,40	22,761
385,61	22,708
385,82	22,639
386,03	22,584
386,23	22,600
386,44	22,570
386,65	22,560
386,86	22,519
387,07	22,539
387,28	22,529
387,48	22,546
387,69	22,512
387,90	22,500
388,11	22,500
388,32	22,554
388,52	22,489
388,73	22,464
388,94	22,444
389,15	22,407
389,36	22,357
389,57	22,386
389,77	22,349
389,98	22,302
390,19	22,273
390,40	22,287
390,61	22,282
390,81	22,237
391,02	22,163
391,23	22,140
391,44	22,161
391,65	22,166
391,85	22,155
392,06	22,169
392,27	22,195
392,48	22,251
392,69	22,255
392,89	22,251
393,10	22,280
393,31	22,314
393,52	22,354
393,73	22,380
393,93	22,363
394,14	22,354
394,35	22,321
394,56	22,336
394,76	22,263
394,97	22,292
395,18	22,252
395,39	22,232
395,60	22,215
395,80	22,190
396,01	22,177
396,22	22,240
396,43	22,229
396,63	22,202
396,84	22,149
397,05	22,205
397,26	22,183
397,47	22,226
397,67	22,252
397,88	22,311
398,09	22,281
398,30	22,319
398,50	22,309
398,71	22,323
398,92	22,415
399,13	22,478
399,33	22,506
399,54	22,526
399,75	22,540
399,96	22,617
400,16	22,577
400,37	22,699
400,58	22,717
400,79	22,796
400,99	22,882
401,20	22,865
401,41	22,857
401,62	22,799
401,82	22,782
402,03	22,783
402,24	22,760
402,45	22,877
402,65	22,775
402,86	22,777
403,07	22,769
403,28	22,733
403,48	22,708
403,69	22,677
403,90	22,710
404,10	22,753
404,31	22,766
404,52	22,788
404,73	22,725
404,93	22,817
405,14	22,820
405,35	22,824
405,56	22,930
405,76	22,989
405,97	23,049
406,18	23,097
406,38	23,077
406,59	23,077
406,80	23,126
407,01	23,163
407,21	23,101
407,42	23,066
407,63	23,073
407,83	23,003
408,04	23,024
408,25	23,045
408,46	23,054
408,66	23,074
408,87	23,108
409,08	23,094
409,28	23,077
409,49	23,164
409,70	23,262
409,90	23,257
410,11	23,252
410,32	23,285
410,52	23,346
410,73	23,332
410,94	23,294
411,15	23,276
411,35	23,282
411,56	23,286
411,77	23,316
411,97	23,334
412,18	23,368
412,39	23,371
412,59	23,434
412,80	23,513
413,01	23,574
413,21	23,695
413,42	23,801
413,63	23,764
413,83	23,825
414,04	23,883
414,25	23,931
414,45	23,939
414,66	24,005
414,87	23,960
415,07	23,909
415,28	23,948
415,49	23,985
415,69	23,982
415,90	24,033
416,11	24,039
416,31	24,020
416,52	23,992
416,73	24,014
416,93	24,115
417,14	24,137
417,35	24,190
417,55	24,203
417,76	24,248
417,97	24,247
418,17	24,358
418,38	24,377
418,59	24,401
418,79	24,465
419,00	24,444
419,20	24,323
419,41	24,331
419,62	24,305
419,82	24,337
420,03	24,298
420,24	24,322
420,44	24,338
420,65	24,388
420,86	24,396
421,06	24,382
421,27	24,465
421,47	24,521
421,68	24,517
421,89	24,510
422,09	24,535
422,30	24,549
422,51	24,550
422,71	24,528
422,92	24,556
423,12	24,539
423,33	24,530
423,54	24,517
423,74	24,563
423,95	24,634
424,16	24,713
424,36	24,720
424,57	24,728
424,77	24,779
424,98	24,843
425,19	24,824
425,39	24,862
425,60	24,908
425,80	24,954
426,01	24,945
426,22	24,972
426,42	24,969
426,63	24,962
426,83	25,022
427,04	25,038
427,25	24,971
427,45	25,062
427,66	25,151
427,86	25,206
428,07	25,242
428,27	25,305
428,48	25,314
428,69	25,291
428,89	25,307
429,10	25,342
429,30	25,374
429,51	25,376
429,72	25,353
429,92	25,268
430,13	25,214
430,33	25,183
430,54	25,205
430,74	25,276
430,95	25,324
431,16	25,359
431,36	25,349
431,57	25,282
431,77	25,422
431,98	25,463
432,18	25,501
432,39	25,545
432,60	25,605
432,80	25,584
433,01	25,552
433,21	25,592
433,42	25,641
433,62	25,648
433,83	25,777
434,03	25,743
434,24	25,727
434,45	25,752
434,65	25,795
434,86	25,820
435,06	25,987
435,27	25,954
435,47	25,949
435,68	25,927
435,88	25,988
436,09	26,015
436,29	26,061
436,50	26,091
436,71	26,197
436,91	26,204
437,12	26,202
437,32	26,062
437,53	26,117
437,73	26,217
437,94	26,260
438,14	26,292
438,35	26,278
438,55	26,319
438,76	26,301
438,96	26,254
439,17	26,267
439,37	26,293
439,58	26,380
439,78	26,411
439,99	26,378
440,19	26,327
440,40	26,300
440,60	26,287
440,81	26,303
441,02	26,349
441,22	26,366
441,43	26,416
441,63	26,449
441,84	26,396
442,04	26,483
442,25	26,488
442,45	26,526
442,66	26,546
442,86	26,704
443,07	26,648
443,27	26,765
443,48	26,832
443,68	26,926
443,89	27,039
444,09	27,133
444,30	27,095
444,50	27,195
444,70	27,213
444,91	27,245
445,11	27,150
445,32	27,180
445,52	27,143
445,73	27,090
445,93	27,078
446,14	27,097
446,34	26,993
446,55	27,038
446,75	26,975
446,96	27,086
447,16	27,138
447,37	27,023
447,57	27,087
447,78	27,165
447,98	27,308
448,19	27,314
448,39	27,147
448,60	27,299
448,80	27,274
449,00	27,293
449,21	27,342
449,41	27,268
449,62	27,348
449,82	27,426
450,03	27,354
450,23	27,379
450,44	27,198
450,64	27,282
450,85	27,340
451,05	27,487
451,25	27,471
451,46	27,441
451,66	27,427
451,87	27,544
452,07	27,432
452,28	27,404
452,48	27,413
452,69	27,453
452,89	27,424
453,09	27,286
453,30	27,112
453,50	27,203
453,71	27,217
453,91	27,281
454,12	27,255
454,32	27,291
454,52	27,309
454,73	27,293
454,93	27,300
455,14	27,296
455,34	27,252
455,55	27,280
455,75	27,202
455,95	27,086
456,16	27,106
456,36	26,989
456,57	26,833
456,77	26,877
456,98	26,763
457,18	26,697
457,38	26,709
457,59	26,816
457,79	26,865
458,00	26,861
458,20	26,919
458,40	26,868
458,61	26,912
458,81	27,075
459,02	27,006
459,22	27,027
459,42	27,226
459,63	27,158
459,83	27,098
460,04	27,041
460,24	27,030
460,44	26,970
460,65	27,056
460,85	27,030
461,06	26,994
461,26	27,023
461,46	27,013
461,67	27,031
461,87	27,064
462,07	27,036
462,28	27,061
462,48	27,020
462,69	27,041
462,89	27,061
463,09	27,012
463,30	26,939
463,50	26,903
463,70	26,903
463,91	26,811
464,11	26,818
464,32	26,808
464,52	26,782
464,72	26,754
464,93	26,737
465,13	26,634
465,33	26,633
465,54	26,686
465,74	26,749
465,94	26,790
466,15	26,826
466,35	26,771
466,55	26,768
466,76	26,691
466,96	26,774
467,17	26,810
467,37	26,764
467,57	26,866
467,78	26,869
467,98	26,756
468,18	26,717
468,39	26,734
468,59	26,835
468,79	26,897
469,00	26,924
469,20	26,864
469,40	26,846
469,61	26,846
